temp,magnetisation
0.000001,-1
0.008017,-1
0.016033,-1
0.024049,-1
0.032065,-1
0.040081,-1
0.048097,-1
0.056113,-1
0.064129,-1
0.072145,-0.999998
0.080161,-1
0.088177,-1
0.096193,-1
0.104209,-1
0.112225,-0.999998
0.120241,-1
0.128257,-1
0.136274,-1
0.14429,-0.999998
0.152306,-1
0.160322,-1
0.168338,-1
0.176354,-1
0.18437,-1
0.192386,-1
0.200402,-1
0.208418,-1
0.216434,-1
0.22445,-1
0.232466,-1
0.240482,-1
0.248498,-1
0.256514,-1
0.26453,-1
0.272546,-1
0.280562,-1
0.288578,-1
0.296594,-1
0.30461,-1
0.312626,-1
0.320642,-1
0.328658,-1
0.336674,-1
0.34469,-1
0.352706,-1
0.360722,-1
0.368738,-1
0.376754,-0.999998
0.38477,-1
0.392786,-1
0.400803,-0.999998
0.408819,-1
0.416835,-1
0.424851,-1
0.432867,-1
0.440883,-1
0.448899,-0.999998
0.456915,-0.999998
0.464931,-1
0.472947,-1
0.480963,-1
0.488979,-0.999998515
0.496995,-1
0.505011,-1
0.513027,-1
0.521043,-1
0.529059,-1
0.537075,-1
0.545091,-1
0.553107,-1
0.561123,-1
0.569139,-1
0.577155,-1
0.585171,-1
0.593187,-1
0.601203,-0.999998
0.609219,-0.999998252
0.617235,-0.999995588
0.625251,-0.999998
0.633267,-0.999996897
0.641283,-0.999987538
0.649299,-0.999991612
0.657315,-0.999990124
0.665331,-0.999985165
0.673348,-0.999995039
0.681364,-0.999985169
0.68938,-0.999989213
0.697396,-0.999990334
0.705412,-0.999982677
0.713428,-0.999979007
0.721444,-0.999971502
0.72946,-0.999968174
0.737476,-0.999981085
0.745492,-0.999960476
0.753508,-0.999963876
0.761524,-0.999950937
0.76954,-0.999952092
0.777556,-0.999945381
0.785572,-0.999950959
0.793588,-0.999931696
0.801604,-0.999934555
0.80962,-0.999912825
0.817636,-0.99988954
0.825652,-0.999895021
0.833668,-0.999891854
0.841684,-0.999853556
0.8497,-0.999860214
0.857716,-0.999849349
0.865732,-0.999843834
0.873748,-0.999826913
0.881764,-0.99980371
0.88978,-0.999787616
0.897796,-0.999753682
0.905812,-0.999722492
0.913828,-0.999747281
0.921844,-0.99968556
0.92986,-0.999706254
0.937877,-0.999666066
0.945893,-0.999616503
0.953909,-0.999618348
0.961925,-0.999626921
0.969941,-0.999564228
0.977957,-0.999509862
0.985973,-0.999502757
0.993989,-0.999410607
1.002005,-0.999432202
1.010021,-0.999386164
1.018037,-0.99933367
1.026053,-0.999235716
1.034069,-0.999231892
1.042085,-0.99913447
1.050101,-0.999137644
1.058117,-0.999066861
1.066133,-0.999027972
1.074149,-0.998951261
1.082165,-0.998820466
1.090181,-0.998820911
1.098197,-0.998719658
1.106213,-0.998742214
1.114229,-0.99862635
1.122245,-0.998499818
1.130261,-0.998422106
1.138277,-0.998347403
1.146293,-0.998313938
1.154309,-0.998299039
1.162325,-0.998009357
1.170341,-0.997963161
1.178357,-0.997849966
1.186373,-0.997792677
1.194389,-0.997555972
1.202406,-0.997614202
1.210422,-0.997330919
1.218438,-0.997362835
1.226454,-0.997089481
1.23447,-0.996998264
1.242486,-0.996924869
1.250502,-0.996561738
1.258518,-0.996580799
1.266534,-0.996513183
1.27455,-0.996238815
1.282566,-0.99592959
1.290582,-0.995848108
1.298598,-0.995658386
1.306614,-0.995448102
1.31463,-0.995390152
1.322646,-0.99513033
1.330662,-0.995084685
1.338678,-0.994726553
1.346694,-0.994434264
1.35471,-0.994246705
1.362726,-0.994097972
1.370742,-0.993841838
1.378758,-0.993469976
1.386774,-0.993414697
1.39479,-0.992919211
1.402806,-0.992815528
1.410822,-0.992539606
1.418838,-0.992229445
1.426854,-0.991864336
1.43487,-0.99166563
1.442886,-0.991295628
1.450902,-0.991097826
1.458918,-0.990584827
1.466935,-0.990158316
1.474951,-0.990194396
1.482967,-0.989623005
1.490983,-0.989058559
1.498999,-0.988864044
1.507015,-0.988631982
1.515031,-0.988076354
1.523047,-0.987504809
1.531063,-0.987341361
1.539079,-0.986738384
1.547095,-0.986492901
1.555111,-0.986261483
1.563127,-0.985664292
1.571143,-0.984644072
1.579159,-0.984682863
1.587175,-0.983852589
1.595191,-0.983619069
1.603207,-0.98301243
1.611223,-0.98257018
1.619239,-0.982052861
1.627255,-0.981598849
1.635271,-0.980984625
1.643287,-0.980576448
1.651303,-0.979648529
1.659319,-0.979497463
1.667335,-0.978688823
1.675351,-0.977800158
1.683367,-0.976757998
1.691383,-0.976200204
1.699399,-0.976155756
1.707415,-0.975286609
1.715431,-0.974240889
1.723447,-0.973546725
1.731463,-0.972836615
1.73948,-0.9724883
1.747496,-0.971333183
1.755512,-0.970442278
1.763528,-0.970492517
1.771544,-0.968767275
1.77956,-0.96793375
1.787576,-0.966917133
1.795592,-0.965785978
1.803608,-0.965576074
1.811624,-0.96383798
1.81964,-0.963410498
1.827656,-0.962589728
1.835672,-0.960902198
1.843688,-0.960980603
1.851704,-0.959068092
1.85972,-0.958386949
1.867736,-0.956524054
1.875752,-0.956357457
1.883768,-0.95479401
1.891784,-0.954305165
1.8998,-0.952698763
1.907816,-0.950312869
1.915832,-0.949853419
1.923848,-0.948283141
1.931864,-0.946481616
1.93988,-0.946573343
1.947896,-0.945449371
1.955912,-0.943383668
1.963928,-0.942676218
1.971944,-0.940031409
1.97996,-0.939436595
1.987976,-0.936532703
1.995992,-0.935390438
2.004009,-0.933576136
2.012025,-0.931943946
2.020041,-0.931198068
2.028057,-0.929641163
2.036073,-0.927458204
2.044089,-0.925505103
2.052105,-0.923536845
2.060121,-0.922291023
2.068137,-0.921028096
2.076153,-0.917552488
2.084169,-0.915625127
2.092185,-0.914734899
2.100201,-0.911131954
2.108217,-0.910083333
2.116233,-0.907470823
2.124249,-0.906098316
2.132265,-0.903374074
2.140281,-0.900876767
2.148297,-0.898418597
2.156313,-0.896028577
2.164329,-0.894451814
2.172345,-0.889745039
2.180361,-0.88824757
2.188377,-0.88479847
2.196393,-0.882096727
2.204409,-0.880428583
2.212425,-0.879115429
2.220441,-0.875080879
2.228457,-0.871856296
2.236473,-0.870567467
2.244489,-0.863779135
2.252505,-0.862841051
2.260521,-0.860014002
2.268538,-0.855606152
2.276554,-0.853013427
2.28457,-0.849043932
2.292586,-0.844980252
2.300602,-0.841995946
2.308618,-0.839532513
2.316634,-0.834189854
2.32465,-0.833026541
2.332666,-0.827727185
2.340682,-0.823710591
2.348698,-0.819141037
2.356714,-0.816677183
2.36473,-0.809089363
2.372746,-0.806632617
2.380762,-0.800956266
2.388778,-0.79691565
2.396794,-0.793454903
2.40481,-0.787214543
2.412826,-0.783888426
2.420842,-0.778457958
2.428858,-0.775012773
2.436874,-0.768890643
2.44489,-0.763095552
2.452906,-0.756379852
2.460922,-0.752183219
2.468938,-0.748485782
2.476954,-0.73997783
2.48497,-0.734568941
2.492986,-0.732247325
2.501002,-0.725195367
2.509018,-0.718376877
2.517034,-0.714628923
2.52505,-0.704476256
2.533066,-0.701095343
2.541083,-0.696276348
2.549099,-0.686963045
2.557115,-0.679327508
2.565131,-0.673285602
2.573147,-0.666389726
2.581163,-0.663999345
2.589179,-0.651567702
2.597195,-0.647845948
2.605211,-0.638015311
2.613227,-0.63262821
2.621243,-0.626546971
2.629259,-0.62046595
2.637275,-0.616334344
2.645291,-0.606596066
2.653307,-0.599643754
2.661323,-0.593000919
2.669339,-0.589234661
2.677355,-0.57834835
2.685371,-0.573353469
2.693387,-0.564689644
2.701403,-0.557661437
2.709419,-0.556272925
2.717435,-0.546559063
2.725451,-0.539394304
2.733467,-0.531638529
2.741483,-0.527975087
2.749499,-0.515798781
2.757515,-0.50792448
2.765531,-0.503278613
2.773547,-0.502084895
2.781563,-0.492645866
2.789579,-0.481718581
2.797595,-0.479529397
2.805612,-0.471244096
2.813628,-0.459041069
2.821644,-0.45873595
2.82966,-0.460389103
2.837676,-0.447423059
2.845692,-0.448870923
2.853708,-0.43705827
2.861724,-0.429695968
2.86974,-0.424149383
2.877756,-0.415980643
2.885772,-0.411680649
2.893788,-0.411259215
2.901804,-0.399282008
2.90982,-0.394495736
2.917836,-0.394873776
2.925852,-0.386528627
2.933868,-0.378518114
2.941884,-0.374377013
2.9499,-0.372359115
2.957916,-0.367426871
2.965932,-0.366094925
2.973948,-0.359430022
2.981964,-0.350980713
2.98998,-0.347333131
2.997996,-0.33987001
3.006012,-0.338386162
3.014028,-0.337587477
3.022044,-0.324988222
3.03006,-0.327129982
3.038076,-0.320990188
3.046092,-0.315907842
3.054108,-0.311507786
3.062124,-0.314637195
3.070141,-0.307299435
3.078157,-0.298426897
3.086173,-0.297962204
3.094189,-0.292377431
3.102205,-0.287446921
3.110221,-0.286660749
3.118237,-0.27970845
3.126253,-0.281179061
3.134269,-0.274361796
3.142285,-0.272267938
3.150301,-0.265515315
3.158317,-0.264412927
3.166333,-0.260081844
3.174349,-0.260610587
3.182365,-0.259151878
3.190381,-0.254381303
3.198397,-0.256068384
3.206413,-0.251231435
3.214429,-0.246351662
3.222445,-0.245546991
3.230461,-0.239720296
3.238477,-0.239051736
3.246493,-0.236823415
3.254509,-0.234000589
3.262525,-0.227194312
3.270541,-0.226265686
3.278557,-0.221301652
3.286573,-0.226789409
3.294589,-0.213130551
3.302605,-0.216762959
3.310621,-0.21407783
3.318637,-0.211768218
3.326653,-0.208506458
3.33467,-0.211244697
3.342686,-0.210793818
3.350702,-0.203739886
3.358718,-0.204271445
3.366734,-0.198925554
3.37475,-0.20050593
3.382766,-0.202141738
3.390782,-0.191413602
3.398798,-0.188717706
3.406814,-0.186149197
3.41483,-0.190757039
3.422846,-0.185554943
3.430862,-0.188477469
3.438878,-0.186345954
3.446894,-0.179346731
3.45491,-0.178891263
3.462926,-0.179484801
3.470942,-0.176980741
3.478958,-0.172983926
3.486974,-0.174272462
3.49499,-0.172198515
3.503006,-0.171669045
3.511022,-0.170849786
3.519038,-0.167060889
3.527054,-0.164730194
3.53507,-0.165731459
3.543086,-0.16248049
3.551102,-0.159754086
3.559118,-0.159318332
3.567134,-0.162001323
3.57515,-0.159686028
3.583166,-0.158625107
3.591182,-0.153009936
3.599198,-0.154785712
3.607215,-0.153010629
3.615231,-0.152503303
3.623247,-0.153782959
3.631263,-0.14574049
3.639279,-0.149598671
3.647295,-0.143787097
3.655311,-0.14557157
3.663327,-0.139169293
3.671343,-0.143558699
3.679359,-0.141724426
3.687375,-0.140912484
3.695391,-0.138921341
3.703407,-0.138130829
3.711423,-0.134393882
3.719439,-0.135730989
3.727455,-0.135255307
3.735471,-0.137537668
3.743487,-0.135620885
3.751503,-0.138764827
3.759519,-0.131903948
3.767535,-0.131549143
3.775551,-0.12980439
3.783567,-0.125620136
3.791583,-0.126802851
3.799599,-0.124888841
3.807615,-0.124210519
3.815631,-0.122711129
3.823647,-0.125653814
3.831663,-0.120065976
3.839679,-0.120365001
3.847695,-0.12292982
3.855711,-0.121176571
3.863727,-0.118463283
3.871744,-0.122145938
3.87976,-0.115410891
3.887776,-0.116024244
3.895792,-0.114370657
3.903808,-0.116288885
3.911824,-0.113693532
3.91984,-0.114788865
3.927856,-0.112516915
3.935872,-0.117310935
3.943888,-0.111858458
3.951904,-0.107711688
3.95992,-0.111746166
3.967936,-0.110034571
3.975952,-0.111073071
3.983968,-0.109223325
3.991984,-0.106104591
4,-0.104661019
